##TITLE= ChirpLin300kHz2m5s2000
##JCAMP-DX= 5.00 Bruker JCAMP library
##DATA TYPE= Shape Data
##ORIGIN= Bruker BioSpin GmbH
##OWNER= <M.FOROOZANDEH>
##DATE= 2014/03/24
##TIME= 19:25:48
##$SHAPE_PARAMETERS= Type: SmoothedChirp ; Total Sweep-Width [Hz] 300000.0 ; Length of Pulse [usec] 1000.0 ; % to be smoothed 5.0 ; 1=High to low field, -1=Low to high field -1.0 ; smoothing 0.0
##MINX= 0
##MAXX= 100
##MINY= 0.2712
##MAXY= 359.8906
##$SHAPE_EXMODE= Adiabatic
##$SHAPE_TOTROT= 1.800000E02
##$SHAPE_TYPE= Inversion
##$SHAPE_USER_DEF= 
##$SHAPE_REPHFAC= 
##$SHAPE_BWFAC= 2.735620E02
##$SHAPE_BWFAC50= 
##$SHAPE_INTEGFAC= 3.236043E-02
##$SHAPE_MODE= 0
##NPOINTS= 2000
##XYPOINTS= (XY..XY)

0.000000, 339.685654
1.586596, 287.501461
3.172793, 235.348351
4.758192, 183.226568
6.342392, 131.136352
7.924996, 79.077942
9.505604, 27.051573
11.083820, 335.057481
12.659245, 283.095898
14.231484, 231.167052
15.800140, 179.271174
17.364818, 127.408488
18.925124, 75.579220
20.480667, 23.783590
22.031053, 332.021820
23.575894, 280.294127
25.114799, 228.600727
26.647381, 176.941835
28.173256, 125.317664
29.692038, 73.728423
31.203345, 22.174322
32.706796, 330.655566
34.202014, 279.172361
35.688622, 227.724910
37.166246, 176.313414
38.634513, 124.938071
40.093054, 73.599081
41.541501, 22.296637
42.979491, 331.030935
44.406661, 279.802167
45.822652, 228.610522
47.227107, 177.456189
48.619674, 126.339355
50.000000, 75.260206
51.367739, 24.218925
52.722547, 333.215694
54.064082, 282.250692
55.392006, 231.324099
56.705986, 180.436090
58.005691, 129.586842
59.290793, 78.776527
60.560969, 28.005318
61.815899, 337.273384
63.055267, 286.580895
64.278761, 235.928018
65.486073, 185.314917
66.676900, 134.741757
67.850941, 84.208701
69.007901, 33.715909
70.147489, 343.263541
71.269417, 292.851755
72.373404, 242.480706
73.459171, 192.150550
74.526445, 141.861440
75.574957, 91.613528
76.604444, 41.406964
77.614646, 351.241898
78.605309, 301.118477
79.576184, 251.036848
80.527026, 200.997154
81.457595, 150.999540
82.367658, 101.044147
83.256985, 51.131115
84.125353, 1.260585
84.972543, 311.432695
85.798341, 261.647579
86.602540, 211.905374
87.384938, 162.206214
88.145336, 112.550231
88.883545, 62.937557
89.599377, 13.368321
90.292654, 323.842652
90.963200, 274.360677
91.610846, 224.922523
92.235429, 175.528314
92.836793, 126.178174
93.414786, 76.872226
93.969262, 27.610591
94.500082, 338.393388
95.007112, 289.220737
95.490224, 240.092754
95.949297, 191.009558
96.384216, 141.971261
96.794870, 92.977980
97.181157, 44.029826
97.542979, 355.126911
97.880245, 306.269347
98.192870, 257.457242
98.480775, 208.690705
98.743889, 159.969842
98.982144, 111.294762
99.195481, 62.665567
99.383846, 14.082363
99.547192, 325.545252
99.685478, 277.054336
99.798668, 228.609717
99.886734, 180.211493
99.949654, 131.859763
99.987413, 83.554625
100.000000, 35.296176
100.000000, 347.084512
100.000000, 298.919727
100.000000, 250.801914
100.000000, 202.731167
100.000000, 154.707577
100.000000, 106.731234
100.000000, 58.802229
100.000000, 10.920651
100.000000, 323.086587
100.000000, 275.300123
100.000000, 227.561347
100.000000, 179.870344
100.000000, 132.227196
100.000000, 84.631988
100.000000, 37.084802
100.000000, 349.585720
100.000000, 302.134821
100.000000, 254.732186
100.000000, 207.377894
100.000000, 160.072022
100.000000, 112.814648
100.000000, 65.605847
100.000000, 18.445696
100.000000, 331.334269
100.000000, 284.271639
100.000000, 237.257880
100.000000, 190.293064
100.000000, 143.377262
100.000000, 96.510544
100.000000, 49.692981
100.000000, 2.924642
100.000000, 316.205594
100.000000, 269.535905
100.000000, 222.915641
100.000000, 176.344870
100.000000, 129.823655
100.000000, 83.352062
100.000000, 36.930153
100.000000, 350.557993
100.000000, 304.235643
100.000000, 257.963164
100.000000, 211.740619
100.000000, 165.568065
100.000000, 119.445565
100.000000, 73.373174
100.000000, 27.350953
100.000000, 341.378959
100.000000, 295.457247
100.000000, 249.585875
100.000000, 203.764897
100.000000, 157.994368
100.000000, 112.274343
100.000000, 66.604874
100.000000, 20.986016
100.000000, 335.417819
100.000000, 289.900335
100.000000, 244.433616
100.000000, 199.017712
100.000000, 153.652672
100.000000, 108.338546
100.000000, 63.075382
100.000000, 17.863228
100.000000, 332.702132
100.000000, 287.592140
100.000000, 242.533299
100.000000, 197.525654
100.000000, 152.569250
100.000000, 107.664132
100.000000, 62.810344
100.000000, 18.007929
100.000000, 333.256931
100.000000, 288.557391
100.000000, 243.909351
100.000000, 199.312854
100.000000, 154.767939
100.000000, 110.274647
100.000000, 65.833018
100.000000, 21.443091
100.000000, 337.104904
100.000000, 292.818497
100.000000, 248.583906
100.000000, 204.401170
100.000000, 160.270325
100.000000, 116.191407
100.000000, 72.164452
100.000000, 28.189496
100.000000, 344.266574
100.000000, 300.395720
100.000000, 256.576968
100.000000, 212.810352
100.000000, 169.095905
100.000000, 125.433660
100.000000, 81.823649
100.000000, 38.265904
100.000000, 354.760456
100.000000, 311.307336
100.000000, 267.906576
100.000000, 224.558205
100.000000, 181.262252
100.000000, 138.018749
100.000000, 94.827722
100.000000, 51.689201
100.000000, 8.603215
100.000000, 325.569790
100.000000, 282.588955
100.000000, 239.660737
100.000000, 196.785161
100.000000, 153.962255
100.000000, 111.192044
100.000000, 68.474554
100.000000, 25.809810
100.000000, 343.197838
100.000000, 300.638660
100.000000, 258.132303
100.000000, 215.678789
100.000000, 173.278141
100.000000, 130.930384
100.000000, 88.635540
100.000000, 46.393631
100.000000, 4.204680
100.000000, 322.068708
100.000000, 279.985737
100.000000, 237.955788
100.000000, 195.978882
100.000000, 154.055039
100.000000, 112.184280
100.000000, 70.366625
100.000000, 28.602094
100.000000, 346.890705
100.000000, 305.232478
100.000000, 263.627431
100.000000, 222.075584
100.000000, 180.576954
100.000000, 139.131560
100.000000, 97.739418
100.000000, 56.400547
100.000000, 15.114963
100.000000, 333.882684
100.000000, 292.703726
100.000000, 251.578105
100.000000, 210.505837
100.000000, 169.486939
100.000000, 128.521425
100.000000, 87.609312
100.000000, 46.750613
100.000000, 5.945345
100.000000, 325.193522
100.000000, 284.495157
100.000000, 243.850266
100.000000, 203.258862
100.000000, 162.720958
100.000000, 122.236569
100.000000, 81.805707
100.000000, 41.428385
100.000000, 1.104616
100.000000, 320.834413
100.000000, 280.617789
100.000000, 240.454754
100.000000, 200.345322
100.000000, 160.289503
100.000000, 120.287310
100.000000, 80.338754
100.000000, 40.443846
100.000000, 0.602596
100.000000, 320.815016
100.000000, 281.081117
100.000000, 241.400907
100.000000, 201.774399
100.000000, 162.201601
100.000000, 122.682523
100.000000, 83.217176
100.000000, 43.805568
100.000000, 4.447709
100.000000, 325.143609
100.000000, 285.893275
100.000000, 246.696717
100.000000, 207.553944
100.000000, 168.464963
100.000000, 129.429783
100.000000, 90.448413
100.000000, 51.520860
100.000000, 12.647132
100.000000, 333.827237
100.000000, 295.061182
100.000000, 256.348975
100.000000, 217.690623
100.000000, 179.086132
100.000000, 140.535511
100.000000, 102.038766
100.000000, 63.595902
100.000000, 25.206928
100.000000, 346.871849
100.000000, 308.590672
100.000000, 270.363403
100.000000, 232.190047
100.000000, 194.070611
100.000000, 156.005100
100.000000, 117.993520
100.000000, 80.035877
100.000000, 42.132176
100.000000, 4.282422
100.000000, 326.486620
100.000000, 288.744776
100.000000, 251.056893
100.000000, 213.422978
100.000000, 175.843035
100.000000, 138.317068
100.000000, 100.845082
100.000000, 63.427081
100.000000, 26.063070
100.000000, 348.753053
100.000000, 311.497033
100.000000, 274.295015
100.000000, 237.147003
100.000000, 200.053000
100.000000, 163.013010
100.000000, 126.027037
100.000000, 89.095085
100.000000, 52.217155
100.000000, 15.393253
100.000000, 338.623381
100.000000, 301.907543
100.000000, 265.245741
100.000000, 228.637978
100.000000, 192.084258
100.000000, 155.584583
100.000000, 119.138955
100.000000, 82.747379
100.000000, 46.409855
100.000000, 10.126387
100.000000, 333.896977
100.000000, 297.721628
100.000000, 261.600342
100.000000, 225.533120
100.000000, 189.519966
100.000000, 153.560881
100.000000, 117.655867
100.000000, 81.804926
100.000000, 46.008061
100.000000, 10.265273
100.000000, 334.576563
100.000000, 298.941934
100.000000, 263.361387
100.000000, 227.834923
100.000000, 192.362545
100.000000, 156.944254
100.000000, 121.580050
100.000000, 86.269936
100.000000, 51.013913
100.000000, 15.811982
100.000000, 340.664144
100.000000, 305.570401
100.000000, 270.530753
100.000000, 235.545202
100.000000, 200.613748
100.000000, 165.736393
100.000000, 130.913137
100.000000, 96.143982
100.000000, 61.428928
100.000000, 26.767976
100.000000, 352.161126
100.000000, 317.608380
100.000000, 283.109738
100.000000, 248.665201
100.000000, 214.274769
100.000000, 179.938443
100.000000, 145.656223
100.000000, 111.428110
100.000000, 77.254104
100.000000, 43.134206
100.000000, 9.068416
100.000000, 335.056734
100.000000, 301.099161
100.000000, 267.195697
100.000000, 233.346342
100.000000, 199.551097
100.000000, 165.809961
100.000000, 132.122935
100.000000, 98.490018
100.000000, 64.911212
100.000000, 31.386516
100.000000, 357.915930
100.000000, 324.499453
100.000000, 291.137087
100.000000, 257.828831
100.000000, 224.574685
100.000000, 191.374649
100.000000, 158.228723
100.000000, 125.136907
100.000000, 92.099200
100.000000, 59.115603
100.000000, 26.186114
100.000000, 353.310735
100.000000, 320.489465
100.000000, 287.722304
100.000000, 255.009250
100.000000, 222.350305
100.000000, 189.745468
100.000000, 157.194738
100.000000, 124.698116
100.000000, 92.255600
100.000000, 59.867191
100.000000, 27.532888
100.000000, 355.252690
100.000000, 323.026599
100.000000, 290.854612
100.000000, 258.736730
100.000000, 226.672952
100.000000, 194.663277
100.000000, 162.707707
100.000000, 130.806239
100.000000, 98.958873
100.000000, 67.165609
100.000000, 35.426447
100.000000, 3.741386
100.000000, 332.110425
100.000000, 300.533565
100.000000, 269.010804
100.000000, 237.542141
100.000000, 206.127578
100.000000, 174.767112
100.000000, 143.460743
100.000000, 112.208472
100.000000, 81.010296
100.000000, 49.866217
100.000000, 18.776233
100.000000, 347.740343
100.000000, 316.758547
100.000000, 285.830845
100.000000, 254.957236
100.000000, 224.137720
100.000000, 193.372295
100.000000, 162.660961
100.000000, 132.003718
100.000000, 101.400565
100.000000, 70.851502
100.000000, 40.356528
100.000000, 9.915642
100.000000, 339.528844
100.000000, 309.196133
100.000000, 278.917508
100.000000, 248.692970
100.000000, 218.522517
100.000000, 188.406149
100.000000, 158.343866
100.000000, 128.335666
100.000000, 98.381550
100.000000, 68.481516
100.000000, 38.635564
100.000000, 8.843693
100.000000, 339.105904
100.000000, 309.422194
100.000000, 279.792565
100.000000, 250.217015
100.000000, 220.695543
100.000000, 191.228150
100.000000, 161.814834
100.000000, 132.455596
100.000000, 103.150434
100.000000, 73.899347
100.000000, 44.702337
100.000000, 15.559401
100.000000, 346.470540
100.000000, 317.435752
100.000000, 288.455038
100.000000, 259.528397
100.000000, 230.655828
100.000000, 201.837331
100.000000, 173.072906
100.000000, 144.362551
100.000000, 115.706267
100.000000, 87.104052
100.000000, 58.555908
100.000000, 30.061832
100.000000, 1.621825
100.000000, 333.235886
100.000000, 304.904015
100.000000, 276.626211
100.000000, 248.402473
100.000000, 220.232803
100.000000, 192.117198
100.000000, 164.055659
100.000000, 136.048185
100.000000, 108.094775
100.000000, 80.195430
100.000000, 52.350150
100.000000, 24.558932
100.000000, 356.821778
100.000000, 329.138687
100.000000, 301.509659
100.000000, 273.934693
100.000000, 246.413788
100.000000, 218.946945
100.000000, 191.534164
100.000000, 164.175443
100.000000, 136.870783
100.000000, 109.620183
100.000000, 82.423644
100.000000, 55.281163
100.000000, 28.192743
100.000000, 1.158381
100.000000, 334.178079
100.000000, 307.251835
100.000000, 280.379650
100.000000, 253.561523
100.000000, 226.797453
100.000000, 200.087442
100.000000, 173.431488
100.000000, 146.829591
100.000000, 120.281752
100.000000, 93.787969
100.000000, 67.348243
100.000000, 40.962574
100.000000, 14.630961
100.000000, 348.353404
100.000000, 322.129904
100.000000, 295.960459
100.000000, 269.845071
100.000000, 243.783738
100.000000, 217.776460
100.000000, 191.823238
100.000000, 165.924071
100.000000, 140.078960
100.000000, 114.287904
100.000000, 88.550903
100.000000, 62.867957
100.000000, 37.239066
100.000000, 11.664230
100.000000, 346.143449
100.000000, 320.676722
100.000000, 295.264051
100.000000, 269.905434
100.000000, 244.600872
100.000000, 219.350364
100.000000, 194.153912
100.000000, 169.011514
100.000000, 143.923171
100.000000, 118.888883
100.000000, 93.908649
100.000000, 68.982471
100.000000, 44.110347
100.000000, 19.292279
100.000000, 354.528265
100.000000, 329.818306
100.000000, 305.162403
100.000000, 280.560554
100.000000, 256.012761
100.000000, 231.519024
100.000000, 207.079342
100.000000, 182.693715
100.000000, 158.362145
100.000000, 134.084630
100.000000, 109.861171
100.000000, 85.691768
100.000000, 61.576421
100.000000, 37.515131
100.000000, 13.507897
100.000000, 349.554720
100.000000, 325.655600
100.000000, 301.810537
100.000000, 278.019531
100.000000, 254.282583
100.000000, 230.599692
100.000000, 206.970859
100.000000, 183.396084
100.000000, 159.875367
100.000000, 136.408708
100.000000, 112.996109
100.000000, 89.637568
100.000000, 66.333086
100.000000, 43.082663
100.000000, 19.886300
100.000000, 356.743997
100.000000, 333.655754
100.000000, 310.621571
100.000000, 287.641449
100.000000, 264.715388
100.000000, 241.843388
100.000000, 219.025449
100.000000, 196.261572
100.000000, 173.551757
100.000000, 150.896004
100.000000, 128.294314
100.000000, 105.746687
100.000000, 83.253123
100.000000, 60.813622
100.000000, 38.428186
100.000000, 16.096813
100.000000, 353.819505
100.000000, 331.596262
100.000000, 309.427084
100.000000, 287.311971
100.000000, 265.250924
100.000000, 243.243944
100.000000, 221.291030
100.000000, 199.392182
100.000000, 177.547402
100.000000, 155.756690
100.000000, 134.020045
100.000000, 112.337469
100.000000, 90.708962
100.000000, 69.134523
100.000000, 47.614154
100.000000, 26.147855
100.000000, 4.735626
100.000000, 343.377468
100.000000, 322.073380
100.000000, 300.823364
100.000000, 279.627420
100.000000, 258.485548
100.000000, 237.397748
100.000000, 216.364022
100.000000, 195.384369
100.000000, 174.458789
100.000000, 153.587284
100.000000, 132.769853
100.000000, 112.006498
100.000000, 91.297218
100.000000, 70.642013
100.000000, 50.040885
100.000000, 29.493834
100.000000, 9.000860
100.000000, 348.561963
100.000000, 328.177144
100.000000, 307.846404
100.000000, 287.569742
100.000000, 267.347160
100.000000, 247.178657
100.000000, 227.064235
100.000000, 207.003893
100.000000, 186.997632
100.000000, 167.045453
100.000000, 147.147355
100.000000, 127.303340
100.000000, 107.513407
100.000000, 87.777557
100.000000, 68.095792
100.000000, 48.468110
100.000000, 28.894513
100.000000, 9.375000
100.000000, 349.909573
100.000000, 330.498232
100.000000, 311.140977
100.000000, 291.837809
100.000000, 272.588728
100.000000, 253.393735
100.000000, 234.252830
100.000000, 215.166013
100.000000, 196.133285
100.000000, 177.154647
100.000000, 158.230098
100.000000, 139.359639
100.000000, 120.543272
100.000000, 101.780995
100.000000, 83.072810
100.000000, 64.418717
100.000000, 45.818717
100.000000, 27.272809
100.000000, 8.780995
100.000000, 350.343274
100.000000, 331.959648
100.000000, 313.630116
100.000000, 295.354680
100.000000, 277.133339
100.000000, 258.966093
100.000000, 240.852945
100.000000, 222.793893
100.000000, 204.788938
100.000000, 186.838081
100.000000, 168.941322
100.000000, 151.098661
100.000000, 133.310100
100.000000, 115.575638
100.000000, 97.895275
100.000000, 80.269013
100.000000, 62.696851
100.000000, 45.178790
100.000000, 27.714831
100.000000, 10.304974
100.000000, 352.949218
100.000000, 335.647566
100.000000, 318.400016
100.000000, 301.206570
100.000000, 284.067228
100.000000, 266.981990
100.000000, 249.950857
100.000000, 232.973828
100.000000, 216.050905
100.000000, 199.182088
100.000000, 182.367377
100.000000, 165.606773
100.000000, 148.900276
100.000000, 132.247885
100.000000, 115.649603
100.000000, 99.105429
100.000000, 82.615363
100.000000, 66.179406
100.000000, 49.797558
100.000000, 33.469820
100.000000, 17.196191
100.000000, 0.976673
100.000000, 344.811265
100.000000, 328.699969
100.000000, 312.642783
100.000000, 296.639709
100.000000, 280.690748
100.000000, 264.795898
100.000000, 248.955161
100.000000, 233.168538
100.000000, 217.436027
100.000000, 201.757630
100.000000, 186.133347
100.000000, 170.563179
100.000000, 155.047125
100.000000, 139.585186
100.000000, 124.177362
100.000000, 108.823653
100.000000, 93.524061
100.000000, 78.278584
100.000000, 63.087224
100.000000, 47.949981
100.000000, 32.866854
100.000000, 17.837845
100.000000, 2.862953
100.000000, 347.942180
100.000000, 333.075524
100.000000, 318.262987
100.000000, 303.504568
100.000000, 288.800268
100.000000, 274.150088
100.000000, 259.554026
100.000000, 245.012085
100.000000, 230.524263
100.000000, 216.090562
100.000000, 201.710980
100.000000, 187.385520
100.000000, 173.114180
100.000000, 158.896962
100.000000, 144.733864
100.000000, 130.624889
100.000000, 116.570035
100.000000, 102.569303
100.000000, 88.622693
100.000000, 74.730205
100.000000, 60.891840
100.000000, 47.107598
100.000000, 33.377479
100.000000, 19.701483
100.000000, 6.079610
100.000000, 352.511861
100.000000, 338.998236
100.000000, 325.538734
100.000000, 312.133356
100.000000, 298.782103
100.000000, 285.484974
100.000000, 272.241970
100.000000, 259.053090
100.000000, 245.918335
100.000000, 232.837705
100.000000, 219.811200
100.000000, 206.838821
100.000000, 193.920567
100.000000, 181.056438
100.000000, 168.246435
100.000000, 155.490558
100.000000, 142.788806
100.000000, 130.141181
100.000000, 117.547682
100.000000, 105.008309
100.000000, 92.523062
100.000000, 80.091942
100.000000, 67.714948
100.000000, 55.392081
100.000000, 43.123341
100.000000, 30.908727
100.000000, 18.748240
100.000000, 6.641881
100.000000, 354.589648
100.000000, 342.591542
100.000000, 330.647563
100.000000, 318.757712
100.000000, 306.921988
100.000000, 295.140391
100.000000, 283.412921
100.000000, 271.739579
100.000000, 260.120365
100.000000, 248.555277
100.000000, 237.044318
100.000000, 225.587486
100.000000, 214.184781
100.000000, 202.836204
100.000000, 191.541755
100.000000, 180.301433
100.000000, 169.115239
100.000000, 157.983172
100.000000, 146.905233
100.000000, 135.881422
100.000000, 124.911739
100.000000, 113.996183
100.000000, 103.134754
100.000000, 92.327454
100.000000, 81.574280
100.000000, 70.875235
100.000000, 60.230317
100.000000, 49.639526
100.000000, 39.102863
100.000000, 28.620327
100.000000, 18.191919
100.000000, 7.817638
100.000000, 357.497485
100.000000, 347.231459
100.000000, 337.019559
100.000000, 326.861788
100.000000, 316.758143
100.000000, 306.708625
100.000000, 296.713234
100.000000, 286.771970
100.000000, 276.884833
100.000000, 267.051823
100.000000, 257.272939
100.000000, 247.548182
100.000000, 237.877552
100.000000, 228.261048
100.000000, 218.698670
100.000000, 209.190419
100.000000, 199.736293
100.000000, 190.336294
100.000000, 180.990421
100.000000, 171.698673
100.000000, 162.461052
100.000000, 153.277555
100.000000, 144.148185
100.000000, 135.072940
100.000000, 126.051820
100.000000, 117.084825
100.000000, 108.171955
100.000000, 99.313210
100.000000, 90.508590
100.000000, 81.758095
100.000000, 73.061724
100.000000, 64.419478
100.000000, 55.831355
100.000000, 47.297357
100.000000, 38.817483
100.000000, 30.391733
100.000000, 22.020106
100.000000, 13.702603
100.000000, 5.439223
100.000000, 357.229966
100.000000, 349.074833
100.000000, 340.973822
100.000000, 332.926934
100.000000, 324.934168
100.000000, 316.995525
100.000000, 309.111004
